 C10H8O4 Density=1.4 Thickness=27.6 microns
 Photon Energy (eV), Transmission
    10.000      0.00000    
    59.980      0.00000    
    109.96      0.00000    
    159.94      0.65001E-23
    209.92      0.18001E-11
    259.90      0.29076E-06
    309.88      0.00000    
    359.86      0.14034E-33
    409.84      0.15300E-24
    459.82      0.22370E-18
    509.80      0.39529E-14
    559.78      0.13161E-21
    609.76      0.19445E-17
    659.74      0.29483E-14
    709.72      0.69185E-12
    759.70      0.65421E-10
    809.68      0.25166E-08
    859.66      0.46626E-07
    909.64      0.47248E-06
    959.62      0.32785E-05
    1009.6      0.16605E-04
    1059.6      0.64033E-04
    1109.6      0.20119E-03
    1159.5      0.52919E-03
    1209.5      0.12052E-02
    1259.5      0.24456E-02
    1309.5      0.45321E-02
    1359.5      0.77363E-02
    1409.4      0.12318E-01
    1459.4      0.18502E-01
    1509.4      0.26504E-01
    1559.4      0.36470E-01
    1609.4      0.48374E-01
    1659.3      0.62163E-01
    1709.3      0.77730E-01
    1759.3      0.95017E-01
    1809.3      0.11387    
    1859.3      0.13401    
    1909.2      0.15519    
    1959.2      0.17720    
    2009.2      0.19978    
    2059.2      0.22285    
    2109.2      0.24631    
    2159.1      0.26987    
    2209.1      0.29342    
    2259.1      0.31682    
    2309.1      0.33996    
    2359.1      0.36275    
    2409.0      0.38511    
    2459.0      0.40697    
    2509.0      0.42830    
    2559.0      0.44906    
    2609.0      0.46921    
    2658.9      0.48873    
    2708.9      0.50762    
    2758.9      0.52588    
    2808.9      0.54348    
    2858.9      0.56045    
    2908.8      0.57680    
    2958.8      0.59252    
    3008.8      0.60764    
    3058.8      0.62216    
    3108.8      0.63612    
    3158.7      0.64952    
    3208.7      0.66238    
    3258.7      0.67471    
    3308.7      0.68655    
    3358.7      0.69790    
    3408.6      0.70878    
    3458.6      0.71922    
    3508.6      0.72923    
    3558.6      0.73883    
    3608.6      0.74803    
    3658.5      0.75686    
    3708.5      0.76533    
    3758.5      0.77345    
    3808.5      0.78124    
    3858.5      0.78872    
    3908.4      0.79589    
    3958.4      0.80277    
    4008.4      0.80937    
    4058.4      0.81570    
    4108.4      0.82178    
    4158.3      0.82762    
    4208.3      0.83323    
    4258.3      0.83861    
    4308.3      0.84377    
    4358.3      0.84873    
    4408.2      0.85350    
    4458.2      0.85808    
    4508.2      0.86248    
    4558.2      0.86671    
    4608.2      0.87078    
    4658.1      0.87470    
    4708.1      0.87846    
    4758.1      0.88209    
    4808.1      0.88558    
    4858.1      0.88893    
    4908.0      0.89217    
    4958.0      0.89528    
    5008.0      0.89829    
    5058.0      0.90118    
    5108.0      0.90397    
    5157.9      0.90666    
    5207.9      0.90926    
    5257.9      0.91176    
    5307.9      0.91418    
    5357.9      0.91651    
    5407.8      0.91876    
    5457.8      0.92094    
    5507.8      0.92304    
    5557.8      0.92507    
    5607.8      0.92703    
    5657.7      0.92892    
    5707.7      0.93076    
    5757.7      0.93253    
    5807.7      0.93424    
    5857.7      0.93590    
    5907.6      0.93751    
    5957.6      0.93906    
    6007.6      0.94057    
    6057.6      0.94202    
    6107.6      0.94343    
    6157.5      0.94480    
    6207.5      0.94612    
    6257.5      0.94741    
    6307.5      0.94865    
    6357.5      0.94986    
    6407.4      0.95103    
    6457.4      0.95216    
    6507.4      0.95326    
    6557.4      0.95433    
    6607.4      0.95537    
    6657.3      0.95638    
    6707.3      0.95735    
    6757.3      0.95830    
    6807.3      0.95922    
    6857.3      0.96012    
    6907.2      0.96099    
    6957.2      0.96183    
    7007.2      0.96265    
    7057.2      0.96345    
    7107.2      0.96423    
    7157.1      0.96498    
    7207.1      0.96572    
    7257.1      0.96643    
    7307.1      0.96713    
    7357.1      0.96780    
    7407.0      0.96846    
    7457.0      0.96910    
    7507.0      0.96973    
    7557.0      0.97033    
    7607.0      0.97092    
    7656.9      0.97150    
    7706.9      0.97206    
    7756.9      0.97261    
    7806.9      0.97314    
    7856.9      0.97366    
    7906.8      0.97416    
    7956.8      0.97466    
    8006.8      0.97514    
    8056.8      0.97561    
    8106.8      0.97606    
    8156.7      0.97651    
    8206.7      0.97695    
    8256.7      0.97737    
    8306.7      0.97779    
    8356.7      0.97819    
    8406.6      0.97859    
    8456.6      0.97897    
    8506.6      0.97935    
    8556.6      0.97971    
    8606.6      0.98007    
    8656.5      0.98042    
    8706.5      0.98077    
    8756.5      0.98110    
    8806.5      0.98143    
    8856.5      0.98175    
    8906.4      0.98206    
    8956.4      0.98236    
    9006.4      0.98266    
    9056.4      0.98295    
    9106.4      0.98324    
    9156.3      0.98351    
    9206.3      0.98379    
    9256.3      0.98405    
    9306.3      0.98431    
    9356.3      0.98457    
    9406.2      0.98482    
    9456.2      0.98506    
    9506.2      0.98530    
    9556.2      0.98553    
    9606.2      0.98576    
    9656.1      0.98599    
    9706.1      0.98621    
    9756.1      0.98642    
    9806.1      0.98663    
    9856.1      0.98684    
    9906.0      0.98704    
    9956.0      0.98723    
    10006.      0.98743    
    10056.      0.98762    
    10106.      0.98780    
    10156.      0.98798    
    10206.      0.98816    
    10256.      0.98834    
    10306.      0.98851    
    10356.      0.98868    
    10406.      0.98884    
    10456.      0.98900    
    10506.      0.98916    
    10556.      0.98931    
    10606.      0.98947    
    10656.      0.98962    
    10706.      0.98976    
    10756.      0.98990    
    10806.      0.99004    
    10856.      0.99018    
    10906.      0.99032    
    10956.      0.99045    
    11006.      0.99058    
    11056.      0.99071    
    11106.      0.99083    
    11156.      0.99096    
    11206.      0.99108    
    11256.      0.99120    
    11305.      0.99131    
    11355.      0.99143    
    11405.      0.99154    
    11455.      0.99165    
    11505.      0.99176    
    11555.      0.99186    
    11605.      0.99197    
    11655.      0.99207    
    11705.      0.99217    
    11755.      0.99227    
    11805.      0.99237    
    11855.      0.99246    
    11905.      0.99256    
    11955.      0.99265    
    12005.      0.99274    
    12055.      0.99283    
    12105.      0.99291    
    12155.      0.99300    
    12205.      0.99309    
    12255.      0.99317    
    12305.      0.99325    
    12355.      0.99333    
    12405.      0.99341    
    12455.      0.99349    
    12505.      0.99356    
    12555.      0.99364    
    12605.      0.99371    
    12655.      0.99378    
    12705.      0.99385    
    12755.      0.99392    
    12805.      0.99399    
    12855.      0.99406    
    12905.      0.99413    
    12955.      0.99419    
    13005.      0.99426    
    13055.      0.99432    
    13105.      0.99438    
    13155.      0.99445    
    13205.      0.99451    
    13255.      0.99457    
    13305.      0.99462    
    13355.      0.99468    
    13405.      0.99474    
    13455.      0.99479    
    13505.      0.99485    
    13555.      0.99490    
    13605.      0.99496    
    13655.      0.99501    
    13705.      0.99506    
    13755.      0.99511    
    13804.      0.99516    
    13854.      0.99521    
    13904.      0.99526    
    13954.      0.99531    
    14004.      0.99535    
    14054.      0.99540    
    14104.      0.99545    
    14154.      0.99549    
    14204.      0.99554    
    14254.      0.99558    
    14304.      0.99562    
    14354.      0.99567    
    14404.      0.99571    
    14454.      0.99575    
    14504.      0.99579    
    14554.      0.99583    
    14604.      0.99587    
    14654.      0.99591    
    14704.      0.99595    
    14754.      0.99598    
    14804.      0.99602    
    14854.      0.99606    
    14904.      0.99609    
    14954.      0.99613    
    15004.      0.99616    
    15054.      0.99620    
    15104.      0.99623    
    15154.      0.99627    
    15204.      0.99630    
    15254.      0.99633    
    15304.      0.99636    
    15354.      0.99640    
    15404.      0.99643    
    15454.      0.99646    
    15504.      0.99649    
    15554.      0.99652    
    15604.      0.99655    
    15654.      0.99658    
    15704.      0.99661    
    15754.      0.99664    
    15804.      0.99666    
    15854.      0.99669    
    15904.      0.99672    
    15954.      0.99675    
    16004.      0.99677    
    16054.      0.99680    
    16104.      0.99683    
    16154.      0.99685    
    16204.      0.99688    
    16253.      0.99690    
    16303.      0.99693    
    16353.      0.99695    
    16403.      0.99697    
    16453.      0.99700    
    16503.      0.99702    
    16553.      0.99704    
    16603.      0.99707    
    16653.      0.99709    
    16703.      0.99711    
    16753.      0.99713    
    16803.      0.99716    
    16853.      0.99718    
    16903.      0.99720    
    16953.      0.99722    
    17003.      0.99724    
    17053.      0.99726    
    17103.      0.99728    
    17153.      0.99730    
    17203.      0.99732    
    17253.      0.99734    
    17303.      0.99736    
    17353.      0.99738    
    17403.      0.99739    
    17453.      0.99741    
    17503.      0.99743    
    17553.      0.99745    
    17603.      0.99747    
    17653.      0.99748    
    17703.      0.99750    
    17753.      0.99752    
    17803.      0.99753    
    17853.      0.99755    
    17903.      0.99757    
    17953.      0.99758    
    18003.      0.99760    
    18053.      0.99762    
    18103.      0.99763    
    18153.      0.99765    
    18203.      0.99766    
    18253.      0.99768    
    18303.      0.99769    
    18353.      0.99771    
    18403.      0.99772    
    18453.      0.99773    
    18503.      0.99775    
    18553.      0.99776    
    18603.      0.99778    
    18653.      0.99779    
    18703.      0.99780    
    18753.      0.99782    
    18802.      0.99783    
    18852.      0.99784    
    18902.      0.99786    
    18952.      0.99787    
    19002.      0.99788    
    19052.      0.99789    
    19102.      0.99791    
    19152.      0.99792    
    19202.      0.99793    
    19252.      0.99794    
    19302.      0.99795    
    19352.      0.99797    
    19402.      0.99798    
    19452.      0.99799    
    19502.      0.99800    
    19552.      0.99801    
    19602.      0.99802    
    19652.      0.99803    
    19702.      0.99804    
    19752.      0.99805    
    19802.      0.99807    
    19852.      0.99808    
    19902.      0.99808    
    19952.      0.99809    
    20002.      0.99810    
    20052.      0.99811    
    20102.      0.99812    
    20152.      0.99813    
    20202.      0.99814    
    20252.      0.99815    
    20302.      0.99816    
    20352.      0.99817    
    20402.      0.99818    
    20452.      0.99819    
    20502.      0.99820    
    20552.      0.99821    
    20602.      0.99822    
    20652.      0.99823    
    20702.      0.99824    
    20752.      0.99825    
    20802.      0.99825    
    20852.      0.99826    
    20902.      0.99827    
    20952.      0.99828    
    21002.      0.99829    
    21052.      0.99830    
    21102.      0.99830    
    21152.      0.99831    
    21202.      0.99832    
    21252.      0.99833    
    21301.      0.99834    
    21351.      0.99834    
    21401.      0.99835    
    21451.      0.99836    
    21501.      0.99837    
    21551.      0.99837    
    21601.      0.99838    
    21651.      0.99839    
    21701.      0.99840    
    21751.      0.99840    
    21801.      0.99841    
    21851.      0.99842    
    21901.      0.99842    
    21951.      0.99843    
    22001.      0.99844    
    22051.      0.99845    
    22101.      0.99845    
    22151.      0.99846    
    22201.      0.99846    
    22251.      0.99847    
    22301.      0.99848    
    22351.      0.99848    
    22401.      0.99849    
    22451.      0.99850    
    22501.      0.99850    
    22551.      0.99851    
    22601.      0.99851    
    22651.      0.99852    
    22701.      0.99853    
    22751.      0.99853    
    22801.      0.99854    
    22851.      0.99854    
    22901.      0.99855    
    22951.      0.99856    
    23001.      0.99856    
    23051.      0.99857    
    23101.      0.99857    
    23151.      0.99858    
    23201.      0.99858    
    23251.      0.99859    
    23301.      0.99859    
    23351.      0.99860    
    23401.      0.99860    
    23451.      0.99861    
    23501.      0.99861    
    23551.      0.99862    
    23601.      0.99862    
    23651.      0.99863    
    23701.      0.99863    
    23750.      0.99864    
    23800.      0.99864    
    23850.      0.99865    
    23900.      0.99865    
    23950.      0.99866    
    24000.      0.99866    
    24050.      0.99867    
    24100.      0.99867    
    24150.      0.99868    
    24200.      0.99868    
    24250.      0.99869    
    24300.      0.99869    
    24350.      0.99869    
    24400.      0.99870    
    24450.      0.99870    
    24500.      0.99871    
    24550.      0.99871    
    24600.      0.99871    
    24650.      0.99872    
    24700.      0.99872    
    24750.      0.99873    
    24800.      0.99873    
    24850.      0.99874    
    24900.      0.99874    
    24950.      0.99874    
    25000.      0.99875    